'ssgpb035.ng1' 'Jun  5 2002 05:32' 'I'      80000.    1  'NEUT'   51  'RAW'
  Filename         Date            Scan       Mon    Prf  Base   #pts  Type
ssgpb                                             
  0   0   0   0   0  0  0     4.7500     0.00000 0.00000   0.00000    2
 Collimation      Mosaic    Wavelength   T-Start   Incr.   H-field #Det
  1       0.20000    0.00400    0.40000
  2       0.20000    0.00400    0.40000
  3       0.50000    0.01000    1.00000
  4       1.00000    0.02000    2.00000
  5       0.60000    0.01200    1.20000
  6       0.80000    0.01600    1.60000
 Mot:    Start       Step      End
     A1         A2         A3         A4       MIN       COUNTS 
    0.20000    0.20000    0.50000    1.00000    0.98        3992
    0.20400    0.20400    0.51000    1.02000    0.98        3707
    0.20800    0.20800    0.52000    1.04000    0.97        3623
    0.21200    0.21200    0.53000    1.06000    0.95        3308
    0.21600    0.21600    0.54000    1.08000    0.92        3256
    0.22000    0.22000    0.55000    1.10000    0.92        3173
    0.22400    0.22400    0.56000    1.12000    0.88        3011
    0.22800    0.22800    0.57000    1.14000    0.88        2738
    0.23200    0.23200    0.58000    1.16000    0.85        2633
    0.23600    0.23600    0.59000    1.18000    0.85        2476
    0.24000    0.24000    0.60000    1.20000    0.85        2352
    0.24400    0.24400    0.61000    1.22000    0.82        2109
    0.24800    0.24800    0.62000    1.24000    0.82        2156
    0.25200    0.25200    0.63000    1.26000    0.80        1964
    0.25600    0.25600    0.64000    1.28000    0.80        1922
    0.26000    0.26000    0.65000    1.30000    0.78        1713
    0.26400    0.26400    0.66000    1.32000    0.77        1753
    0.26800    0.26800    0.67000    1.34000    0.77        1531
    0.27200    0.27200    0.68000    1.36000    0.73        1469
    0.27600    0.27600    0.69000    1.38000    0.73        1329
    0.28000    0.28000    0.70000    1.40000    0.73        1234
    0.28400    0.28400    0.71000    1.42000    0.72        1225
    0.28800    0.28800    0.72000    1.44000    0.72        1148
    0.29200    0.29200    0.73000    1.46000    0.68        1087
    0.29600    0.29600    0.74000    1.48000    0.68         999
    0.30000    0.30000    0.75000    1.50000    0.68         988
    0.30400    0.30400    0.76000    1.52000    0.67         915
    0.30800    0.30800    0.77000    1.54000    0.67         846
    0.31200    0.31200    0.78000    1.56000    0.65         791
    0.31600    0.31600    0.79000    1.58000    0.65         725
    0.32000    0.32000    0.80000    1.60000    0.65         654
    0.32400    0.32400    0.81000    1.62000    0.63         591
    0.32800    0.32800    0.82000    1.64000    0.62         581
    0.33200    0.33200    0.83000    1.66000    0.60         567
    0.33600    0.33600    0.84000    1.68000    0.62         476
    0.34000    0.34000    0.85000    1.70000    0.60         452
    0.34400    0.34400    0.86000    1.72000    0.60         395
    0.34800    0.34800    0.87000    1.74000    0.60         400
    0.35200    0.35200    0.88000    1.76000    0.58         343
    0.35600    0.35600    0.89000    1.78000    0.58         282
    0.36000    0.36000    0.90000    1.80000    0.58         301
    0.36400    0.36400    0.91000    1.82000    0.57         226
    0.36800    0.36800    0.92000    1.84000    0.55         287
    0.37200    0.37200    0.93000    1.86000    0.53         241
    0.37600    0.37600    0.94000    1.88000    0.55         219
    0.38000    0.38000    0.95000    1.90000    0.53         205
    0.38400    0.38400    0.96000    1.92000    0.53         192
    0.38800    0.38800    0.97000    1.94000    0.53         211
    0.39200    0.39200    0.98000    1.96000    0.52         175
    0.39600    0.39600    0.99000    1.98000    0.52         174
    0.40000    0.40000    1.00000    2.00000    0.53         175
