'ssgpb028.ng1' 'Jun  5 2002 00:44' 'I'      80000.    1  'NEUT'   51  'RAW'
  Filename         Date            Scan       Mon    Prf  Base   #pts  Type
ssgpb                                             
  0   0   0   0   0  0  0     4.7500     0.00000 0.00000   0.00000    2
 Collimation      Mosaic    Wavelength   T-Start   Incr.   H-field #Det
  1       0.20000    0.00400    0.40000
  2       0.20000    0.00400    0.40000
  3       0.50000    0.01000    1.00000
  4       1.00000    0.02000    2.00000
  5       0.60000    0.01200    1.20000
  6       0.80000    0.01600    1.60000
 Mot:    Start       Step      End
     A1         A2         A3         A4       MIN       COUNTS 
    0.20000    0.20000    0.50000    1.00000    0.98        3966
    0.20400    0.20400    0.51000    1.02000    1.00        3700
    0.20800    0.20800    0.52000    1.04000    0.95        3624
    0.21200    0.21200    0.53000    1.06000    0.95        3383
    0.21600    0.21600    0.54000    1.08000    0.92        3314
    0.22000    0.22000    0.55000    1.10000    0.92        3074
    0.22400    0.22400    0.56000    1.12000    0.90        2967
    0.22800    0.22800    0.57000    1.14000    0.90        2820
    0.23200    0.23200    0.58000    1.16000    0.85        2680
    0.23600    0.23600    0.59000    1.18000    0.87        2461
    0.24000    0.24000    0.60000    1.20000    0.85        2408
    0.24400    0.24400    0.61000    1.22000    0.82        2258
    0.24800    0.24800    0.62000    1.24000    0.82        2145
    0.25200    0.25200    0.63000    1.26000    0.80        1978
    0.25600    0.25600    0.64000    1.28000    0.78        1973
    0.26000    0.26000    0.65000    1.30000    0.78        1688
    0.26400    0.26400    0.66000    1.32000    0.77        1628
    0.26800    0.26800    0.67000    1.34000    0.77        1549
    0.27200    0.27200    0.68000    1.36000    0.73        1434
    0.27600    0.27600    0.69000    1.38000    0.73        1342
    0.28000    0.28000    0.70000    1.40000    0.75        1322
    0.28400    0.28400    0.71000    1.42000    0.70        1183
    0.28800    0.28800    0.72000    1.44000    0.72        1188
    0.29200    0.29200    0.73000    1.46000    0.68        1122
    0.29600    0.29600    0.74000    1.48000    0.70        1027
    0.30000    0.30000    0.75000    1.50000    0.70         919
    0.30400    0.30400    0.76000    1.52000    0.67         901
    0.30800    0.30800    0.77000    1.54000    0.68         874
    0.31200    0.31200    0.78000    1.56000    0.65         709
    0.31600    0.31600    0.79000    1.58000    0.65         703
    0.32000    0.32000    0.80000    1.60000    0.65         663
    0.32400    0.32400    0.81000    1.62000    0.63         577
    0.32800    0.32800    0.82000    1.64000    0.62         599
    0.33200    0.33200    0.83000    1.66000    0.62         546
    0.33600    0.33600    0.84000    1.68000    0.62         498
    0.34000    0.34000    0.85000    1.70000    0.62         426
    0.34400    0.34400    0.86000    1.72000    0.58         420
    0.34800    0.34800    0.87000    1.74000    0.58         419
    0.35200    0.35200    0.88000    1.76000    0.58         337
    0.35600    0.35600    0.89000    1.78000    0.58         319
    0.36000    0.36000    0.90000    1.80000    0.58         309
    0.36400    0.36400    0.91000    1.82000    0.57         292
    0.36800    0.36800    0.92000    1.84000    0.55         265
    0.37200    0.37200    0.93000    1.86000    0.55         228
    0.37600    0.37600    0.94000    1.88000    0.55         227
    0.38000    0.38000    0.95000    1.90000    0.55         194
    0.38400    0.38400    0.96000    1.92000    0.53         186
    0.38800    0.38800    0.97000    1.94000    0.55         206
    0.39200    0.39200    0.98000    1.96000    0.52         163
    0.39600    0.39600    0.99000    1.98000    0.53         157
    0.40000    0.40000    1.00000    2.00000    0.52         167
