'ssgpb022.ng1' 'Jun  4 2002 20:34' 'I'     150000.    1  'NEUT'   51  'RAW'
  Filename         Date            Scan       Mon    Prf  Base   #pts  Type
ssgpb                                             
  0   0   0   0   0  0  0     4.7500     0.00000 0.00000   0.00000    2
 Collimation      Mosaic    Wavelength   T-Start   Incr.   H-field #Det
  1       0.40000    0.00800    0.80000
  2       0.40000    0.00800    0.80000
  3       1.00000    0.02000    2.00000
  4       2.00000    0.04000    4.00000
  5       1.20000    0.02400    2.40000
  6       1.60000    0.03200    3.20000
 Mot:    Start       Step      End
     A1         A2         A3         A4       MIN       COUNTS 
    0.40000    0.40000    1.00000    2.00000    0.98         300
    0.40800    0.40800    1.02000    2.04000    0.95         256
    0.41600    0.41600    1.04000    2.08000    0.93         251
    0.42400    0.42400    1.06000    2.12000    0.92         232
    0.43200    0.43200    1.08000    2.16000    0.90         205
    0.44000    0.44000    1.10000    2.20000    0.90         193
    0.44800    0.44800    1.12000    2.24000    0.87         204
    0.45600    0.45600    1.14000    2.28000    0.85         195
    0.46400    0.46400    1.16000    2.32000    0.83         219
    0.47200    0.47200    1.18000    2.36000    0.82         247
    0.48000    0.48000    1.20000    2.40000    0.83         224
    0.48800    0.48800    1.22000    2.44000    0.80         221
    0.49600    0.49600    1.24000    2.48000    0.78         212
    0.50400    0.50400    1.26000    2.52000    0.77         237
    0.51200    0.51200    1.28000    2.56000    0.75         284
    0.52000    0.52000    1.30000    2.60000    0.75         258
    0.52800    0.52800    1.32000    2.64000    0.73         247
    0.53600    0.53600    1.34000    2.68000    0.72         241
    0.54400    0.54400    1.36000    2.72000    0.72         277
    0.55200    0.55200    1.38000    2.76000    0.70         248
    0.56000    0.56000    1.40000    2.80000    0.70         223
    0.56800    0.56800    1.42000    2.84000    0.68         217
    0.57600    0.57600    1.44000    2.88000    0.67         230
    0.58400    0.58400    1.46000    2.92000    0.67         193
    0.59200    0.59200    1.48000    2.96000    0.67         220
    0.60000    0.60000    1.50000    3.00000    0.65         195
    0.60800    0.60800    1.52000    3.04000    0.63         155
    0.61600    0.61600    1.54000    3.08000    0.63         175
    0.62400    0.62400    1.56000    3.12000    0.63         165
    0.63200    0.63200    1.58000    3.16000    0.62         148
    0.64000    0.64000    1.60000    3.20000    0.62         151
    0.64800    0.64800    1.62000    3.24000    0.60         143
    0.65600    0.65600    1.64000    3.28000    0.60         132
    0.66400    0.66400    1.66000    3.32000    0.58         124
    0.67200    0.67200    1.68000    3.36000    0.58         113
    0.68000    0.68000    1.70000    3.40000    0.57         109
    0.68800    0.68800    1.72000    3.44000    0.57          68
    0.69600    0.69600    1.74000    3.48000    0.57          82
    0.70400    0.70400    1.76000    3.52000    0.55          62
    0.71200    0.71200    1.78000    3.56000    0.53          73
    0.72000    0.72000    1.80000    3.60000    0.53          83
    0.72800    0.72800    1.82000    3.64000    0.53          34
    0.73600    0.73600    1.84000    3.68000    0.52          62
    0.74400    0.74400    1.86000    3.72000    0.52          41
    0.75200    0.75200    1.88000    3.76000    0.50          37
    0.76000    0.76000    1.90000    3.80000    0.50          43
    0.76800    0.76800    1.92000    3.84000    0.50          40
    0.77600    0.77600    1.94000    3.88000    0.50          47
    0.78400    0.78400    1.96000    3.92000    0.48          43
    0.79200    0.79200    1.98000    3.96000    0.48          39
    0.80000    0.80000    2.00000    4.00000    0.47          54
